File: RReflektometrie/Daten/rocking1_1120.uxd
; (content of file C:\Users\Bruker\Desktop\Praktikum\LindhauerRauter\rocking1_1120.raw)
_FILEVERSION = 2
_SAMPLE =
_+SAMPLE =
_SITE = Dortmund
_USER = "Metin Tolan"
_GONIOMETER_CODE = 21
_STAGE_CODE = 8
; Goniometer : D8 theta/theta, stage : XYZ Drive(s)
_SAMPLE_CHANGER_CODE = 0
_ATTACHMENTS_CODE = 0
_GONIOMETER_RADIUS = 300
_FIXED_DIVSLIT = 0.15
_FIXED_SAMPLESLIT = 1
_SOLLER_SLITS = 2
_FIXED_DETSLIT = 1
_MONOCHROMATOR = 0
; Incident beam monochromator : None
_THIN_FILM = N
_BETA_FILTER = N
_FIXED_ANTISLIT = 0.15
_ANALYZER_CODE = 0
; Received beam analyzer : None
_DATEMEASURED = "16-Feb-2017 11:15:23"
_WL_UNIT = A
_WL1 = 1.5406
_WL2 = 1.54439
_WL3 = 1.39222
_WLRATIO = 0.5
_ANODE = Cu

; Data for range 1
_DRIVE = THETA
_STEPTIME = 0.9999
_STEPSIZE = 0.025
_STEPMODE = C
_START = -1
_THETA = -1
_2THETA = 0
_KHI = 0
_PHI = 0
_X = 29
_Y = -5
_Z = -19.1655
_DETECTOR = 1
; Detector type : Scintillation counter
_HV = 743.4
_GAIN = 80
_LLD = 0.98
_ULD = 2.01
_DETECTORSLIT = out
_AUX1 = 0
_AUX2 = 0
_AUX3 = 0
_TIMESTARTED = 3
_TEMP_RATE = -1
_TEMP_DELAY = -1
_KV = 40
_MA = 40
_RANGE_WL = 1.5406
_3DPLANE = 0
_V4_COUNTERS_MASK = 1
_V4_DRIVES_MASK = 0
_V4_ENCODERS_MASK = 0
_2THETACOUNTS = 1
; THETA  Cnt1_D1
  -1.0000         28
  -0.9750         52
  -0.9500         94
  -0.9250        162
  -0.9000        300
  -0.8750        501
  -0.8500        775
  -0.8250       1018
  -0.8000       1313
  -0.7750       1586
  -0.7500       1875
  -0.7250       1948
  -0.7000       2257
  -0.6750       2684
  -0.6500       4815
  -0.6250      12920
  -0.6000      44178
  -0.5750      89900
  -0.5500     190591
  -0.5250     417450
  -0.5000     624544
  -0.4750    1010080
  -0.4500    1407730
  -0.4250    1975670
  -0.4000    2596720
  -0.3750    3672730
  -0.3500    4344870
  -0.3250    5353070
  -0.3000    6625320
  -0.2750    7729550
  -0.2500    8197640
  -0.2250    9265850
  -0.2000   10190000
  -0.1750   11978400
  -0.1500   12482500
  -0.1250   12650500
  -0.1000   13670700
  -0.0750   15579100
  -0.0500   15699100
  -0.0250   16371300
   0.0000   16851400
   0.0250   15903200
   0.0500   15255100
   0.0750   14618900
   0.1000   14510900
   0.1250   13070600
   0.1500   12578500
   0.1750   11150200
   0.2000   10322100
   0.2250    9769950
   0.2500    7849570
   0.2750    7345470
   0.3000    6601320
   0.3250    5425080
   0.3500    4668930
   0.3750    3972790
   0.4000    3372670
   0.4250    2508500
   0.4500    2100420
   0.4750    1524300
   0.5000    1028020
   0.5250     675444
   0.5500     434223
   0.5750     258344
   0.6000     151535
   0.6250      76719
   0.6500      30298
   0.6750      11013
   0.7000       4226
   0.7250       2753
   0.7500       2315
   0.7750       2132
   0.8000       1924
   0.8250       1769
   0.8500       1548
   0.8750       1281
   0.9000       1031
   0.9250        811
   0.9500        576
   0.9750        370
   1.0000        231